   DEPTH          CALI       S-SONIC   P-SONIC      GR           LITH    RESISTIVITY     NPHI       POROS        RHOB        SWARCH       SW_I         VP        VSH          VS
   8744.5000   -999.2500   -999.2500   -999.2500     87.3611   -999.2500   -999.2500   -999.2500   -999.2500   -999.2500   -999.2500   -999.2500   -999.2500   -999.2500   -999.2500
   8745.0000   -999.2500   -999.2500   -999.2500     86.6460   -999.2500   -999.2500   -999.2500   -999.2500   -999.2500   -999.2500   -999.2500   -999.2500   -999.2500   -999.2500
   8745.5000   -999.2500   -999.2500   -999.2500     78.5065   -999.2500   -999.2500   -999.2500   -999.2500   -999.2500   -999.2500   -999.2500   -999.2500   -999.2500   -999.2500
   8746.0000   -999.2500   -999.2500   -999.2500     78.2807   -999.2500   -999.2500   -999.2500   -999.2500   -999.2500   -999.2500   -999.2500   -999.2500   -999.2500   -999.2500
   8746.5000   -999.2500   -999.2500   -999.2500     79.0308   -999.2500   -999.2500   -999.2500   -999.2500   -999.2500   -999.2500   -999.2500   -999.2500   -999.2500   -999.2500
   8747.0000   -999.2500   -999.2500   -999.2500     76.5580   -999.2500   -999.2500   -999.2500   -999.2500   -999.2500   -999.2500   -999.2500   -999.2500   -999.2500   -999.2500
   8747.5000   -999.2500   -999.2500   -999.2500     81.3348   -999.2500   -999.2500   -999.2500   -999.2500   -999.2500   -999.2500   -999.2500   -999.2500   -999.2500   -999.2500
   8748.0000   -999.2500   -999.2500   -999.2500     78.9817   -999.2500   -999.2500   -999.2500   -999.2500   -999.2500   -999.2500   -999.2500   -999.2500   -999.2500   -999.2500
   8748.5000   -999.2500   -999.2500   -999.2500     78.9271   -999.2500   -999.2500   -999.2500   -999.2500   -999.2500   -999.2500   -999.2500   -999.2500   -999.2500   -999.2500
   8749.0000   -999.2500   -999.2500   -999.2500     89.6760   -999.2500   -999.2500   -999.2500   -999.2500   -999.2500   -999.2500   -999.2500   -999.2500   -999.2500   -999.2500
   8749.5000   -999.2500   -999.2500   -999.2500     87.3994   -999.2500   -999.2500   -999.2500   -999.2500   -999.2500   -999.2500   -999.2500   -999.2500   -999.2500   -999.2500
   8750.0000   -999.2500   -999.2500   -999.2500     70.5830   -999.2500   -999.2500   -999.2500   -999.2500   -999.2500   -999.2500   -999.2500   -999.2500   -999.2500   -999.2500
   8750.5000   -999.2500   -999.2500   -999.2500     62.8351   -999.2500   -999.2500   -999.2500   -999.2500   -999.2500   -999.2500   -999.2500   -999.2500   -999.2500   -999.2500
   8751.0000   -999.2500   -999.2500   -999.2500     61.8536   -999.2500   -999.2500   -999.2500   -999.2500   -999.2500   -999.2500   -999.2500   -999.2500   -999.2500   -999.2500
   8751.5000   -999.2500   -999.2500   -999.2500     65.7388   -999.2500   -999.2500   -999.2500   -999.2500   -999.2500   -999.2500   -999.2500   -999.2500   -999.2500   -999.2500
   8752.0000   -999.2500   -999.2500   -999.2500     70.1339   -999.2500   -999.2500   -999.2500   -999.2500   -999.2500   -999.2500   -999.2500   -999.2500   -999.2500   -999.2500
   8752.5000   -999.2500   -999.2500   -999.2500     67.9218   -999.2500   -999.2500   -999.2500   -999.2500   -999.2500   -999.2500   -999.2500   -999.2500   -999.2500   -999.2500
   8753.0000   -999.2500   -999.2500   -999.2500     70.1663   -999.2500   -999.2500   -999.2500   -999.2500   -999.2500   -999.2500   -999.2500   -999.2500   -999.2500   -999.2500
   8753.5000   -999.2500   -999.2500   -999.2500     72.3246   -999.2500   -999.2500   -999.2500   -999.2500   -999.2500   -999.2500   -999.2500   -999.2500   -999.2500   -999.2500
   8754.0000   -999.2500   -999.2500   -999.2500     73.1045   -999.2500   -999.2500   -999.2500   -999.2500   -999.2500   -999.2500   -999.2500   -999.2500   -999.2500   -999.2500
   8754.5000   -999.2500   -999.2500   -999.2500     76.5074   -999.2500   -999.2500   -999.2500   -999.2500   -999.2500   -999.2500   -999.2500   -999.2500   -999.2500   -999.2500
   8755.0000   -999.2500   -999.2500   -999.2500     73.0934   -999.2500   -999.2500   -999.2500   -999.2500   -999.2500   -999.2500   -999.2500   -999.2500   -999.2500   -999.2500
   8755.5000   -999.2500   -999.2500   -999.2500     72.2141   -999.2500   -999.2500   -999.2500   -999.2500   -999.2500   -999.2500   -999.2500   -999.2500   -999.2500   -999.2500
   8756.0000   -999.2500   -999.2500   -999.2500     72.2630   -999.2500   -999.2500   -999.2500   -999.2500   -999.2500   -999.2500   -999.2500   -999.2500   -999.2500   -999.2500
   8756.5000   -999.2500   -999.2500   -999.2500     64.5509   -999.2500   -999.2500   -999.2500   -999.2500   -999.2500   -999.2500   -999.2500   -999.2500   -999.2500   -999.2500
   8757.0000   -999.2500   -999.2500   -999.2500     59.9800   -999.2500   -999.2500   -999.2500   -999.2500   -999.2500   -999.2500   -999.2500   -999.2500   -999.2500   -999.2500
   8757.5000   -999.2500   -999.2500   -999.2500     55.7427   -999.2500   -999.2500   -999.2500   -999.2500   -999.2500   -999.2500   -999.2500   -999.2500   -999.2500   -999.2500
   8758.0000   -999.2500   -999.2500   -999.2500     56.9449   -999.2500   -999.2500   -999.2500   -999.2500   -999.2500   -999.2500   -999.2500   -999.2500   -999.2500   -999.2500
   8758.5000   -999.2500   -999.2500   -999.2500     53.3375   -999.2500   -999.2500   -999.2500   -999.2500   -999.2500   -999.2500   -999.2500   -999.2500   -999.2500   -999.2500
   8759.0000   -999.2500   -999.2500   -999.2500     59.6778   -999.2500   -999.2500   -999.2500   -999.2500   -999.2500   -999.2500   -999.2500   -999.2500   -999.2500   -999.2500
   8759.5000   -999.2500   -999.2500   -999.2500     59.6469   -999.2500   -999.2500   -999.2500   -999.2500   -999.2500   -999.2500   -999.2500   -999.2500   -999.2500   -999.2500
   8760.0000   -999.2500   -999.2500   -999.2500     52.9618   -999.2500   -999.2500   -999.2500   -999.2500   -999.2500   -999.2500   -999.2500   -999.2500   -999.2500   -999.2500
   8760.5000   -999.2500   -999.2500   -999.2500     56.4316   -999.2500   -999.2500   -999.2500   -999.2500   -999.2500   -999.2500   -999.2500   -999.2500   -999.2500   -999.2500
   8761.0000   -999.2500   -999.2500   -999.2500     59.9698   -999.2500   -999.2500   -999.2500   -999.2500   -999.2500   -999.2500   -999.2500   -999.2500   -999.2500   -999.2500
   8761.5000   -999.2500   -999.2500   -999.2500     58.9290   -999.2500   -999.2500   -999.2500   -999.2500   -999.2500   -999.2500   -999.2500   -999.2500   -999.2500   -999.2500
   8762.0000   -999.2500   -999.2500   -999.2500     58.8709   -999.2500   -999.2500   -999.2500   -999.2500   -999.2500   -999.2500   -999.2500   -999.2500   -999.2500   -999.2500
   8762.5000   -999.2500   -999.2500   -999.2500     57.4333   -999.2500   -999.2500   -999.2500   -999.2500   -999.2500   -999.2500   -999.2500   -999.2500   -999.2500   -999.2500
   8763.0000   -999.2500   -999.2500   -999.2500     58.5905   -999.2500   -999.2500   -999.2500   -999.2500   -999.2500   -999.2500   -999.2500   -999.2500   -999.2500   -999.2500
   8763.5000   -999.2500   -999.2500   -999.2500     62.5118   -999.2500   -999.2500   -999.2500   -999.2500   -999.2500   -999.2500   -999.2500   -999.2500   -999.2500   -999.2500
   8764.0000   -999.2500   -999.2500   -999.2500     62.5362   -999.2500   -999.2500   -999.2500   -999.2500   -999.2500   -999.2500   -999.2500   -999.2500   -999.2500   -999.2500
   8764.5000   -999.2500   -999.2500   -999.2500     61.5069   -999.2500   -999.2500   -999.2500   -999.2500   -999.2500   -999.2500   -999.2500   -999.2500   -999.2500   -999.2500
   8765.0000   -999.2500   -999.2500   -999.2500     59.6913   -999.2500   -999.2500   -999.2500   -999.2500   -999.2500   -999.2500   -999.2500   -999.2500   -999.2500   -999.2500
   8765.5000   -999.2500   -999.2500   -999.2500     59.3607   -999.2500   -999.2500   -999.2500   -999.2500   -999.2500   -999.2500   -999.2500   -999.2500   -999.2500   -999.2500
   8766.0000   -999.2500   -999.2500   -999.2500     55.9692   -999.2500   -999.2500   -999.2500   -999.2500   -999.2500   -999.2500   -999.2500   -999.2500   -999.2500   -999.2500
   8766.5000   -999.2500   -999.2500   -999.2500     58.9392   -999.2500   -999.2500   -999.2500   -999.2500   -999.2500   -999.2500   -999.2500   -999.2500   -999.2500   -999.2500
   8767.0000   -999.2500   -999.2500   -999.2500     58.9658   -999.2500   -999.2500   -999.2500   -999.2500   -999.2500   -999.2500   -999.2500   -999.2500   -999.2500   -999.2500
   8767.5000   -999.2500   -999.2500   -999.2500     60.3280   -999.2500   -999.2500   -999.2500   -999.2500   -999.2500   -999.2500   -999.2500   -999.2500   -999.2500   -999.2500
   8768.0000   -999.2500   -999.2500   -999.2500     59.5021   -999.2500   -999.2500   -999.2500   -999.2500   -999.2500   -999.2500   -999.2500   -999.2500   -999.2500   -999.2500
   8768.5000   -999.2500   -999.2500   -999.2500     53.2148   -999.2500   -999.2500   -999.2500   -999.2500   -999.2500   -999.2500   -999.2500   -999.2500   -999.2500   -999.2500
   8769.0000   -999.2500   -999.2500   -999.2500     51.2420   -999.2500   -999.2500   -999.2500   -999.2500   -999.2500   -999.2500   -999.2500   -999.2500   -999.2500   -999.2500
   8769.5000   -999.2500   -999.2500   -999.2500     55.1454   -999.2500   -999.2500   -999.2500   -999.2500   -999.2500   -999.2500   -999.2500   -999.2500   -999.2500   -999.2500
   8770.0000   -999.2500   -999.2500   -999.2500     59.9602   -999.2500   -999.2500   -999.2500   -999.2500   -999.2500   -999.2500   -999.2500   -999.2500   -999.2500   -999.2500
   8770.5000   -999.2500   -999.2500   -999.2500     63.7977   -999.2500   -999.2500   -999.2500   -999.2500   -999.2500   -999.2500   -999.2500   -999.2500   -999.2500   -999.2500
   8771.0000   -999.2500   -999.2500   -999.2500     68.5795   -999.2500   -999.2500   -999.2500   -999.2500   -999.2500   -999.2500   -999.2500   -999.2500   -999.2500   -999.2500
   8771.5000   -999.2500   -999.2500   -999.2500     69.8631   -999.2500   -999.2500   -999.2500   -999.2500   -999.2500   -999.2500   -999.2500   -999.2500   -999.2500   -999.2500
   8772.0000   -999.2500   -999.2500   -999.2500     69.5266   -999.2500   -999.2500   -999.2500   -999.2500   -999.2500   -999.2500   -999.2500   -999.2500   -999.2500   -999.2500
   8772.5000   -999.2500   -999.2500   -999.2500     68.8384   -999.2500   -999.2500   -999.2500   -999.2500   -999.2500   -999.2500   -999.2500   -999.2500   -999.2500   -999.2500
   8773.0000   -999.2500   -999.2500   -999.2500     66.6167   -999.2500   -999.2500   -999.2500   -999.2500   -999.2500   -999.2500   -999.2500   -999.2500   -999.2500   -999.2500
   8773.5000   -999.2500   -999.2500   -999.2500     68.3309   -999.2500   -999.2500   -999.2500   -999.2500   -999.2500   -999.2500   -999.2500   -999.2500   -999.2500   -999.2500
   8774.0000   -999.2500   -999.2500   -999.2500     69.6305   -999.2500   -999.2500   -999.2500   -999.2500   -999.2500   -999.2500   -999.2500   -999.2500   -999.2500   -999.2500
   8774.5000   -999.2500   -999.2500   -999.2500     70.3899   -999.2500   -999.2500   -999.2500   -999.2500   -999.2500   -999.2500   -999.2500   -999.2500   -999.2500   -999.2500
   8775.0000   -999.2500   -999.2500   -999.2500     75.5518   -999.2500   -999.2500   -999.2500   -999.2500   -999.2500   -999.2500   -999.2500   -999.2500   -999.2500   -999.2500
   8775.5000   -999.2500   -999.2500   -999.2500     77.1432   -999.2500   -999.2500   -999.2500   -999.2500   -999.2500   -999.2500   -999.2500   -999.2500   -999.2500   -999.2500
   8776.0000   -999.2500   -999.2500   -999.2500     72.2268   -999.2500   -999.2500   -999.2500   -999.2500   -999.2500   -999.2500   -999.2500   -999.2500   -999.2500   -999.2500
   8776.5000   -999.2500   -999.2500   -999.2500     71.6906   -999.2500   -999.2500   -999.2500   -999.2500   -999.2500   -999.2500   -999.2500   -999.2500   -999.2500   -999.2500
   8777.0000   -999.2500   -999.2500   -999.2500     73.7653   -999.2500   -999.2500   -999.2500   -999.2500   -999.2500   -999.2500   -999.2500   -999.2500   -999.2500   -999.2500
   8777.5000   -999.2500   -999.2500   -999.2500     67.8455   -999.2500   -999.2500   -999.2500   -999.2500   -999.2500   -999.2500   -999.2500   -999.2500   -999.2500   -999.2500
   8778.0000   -999.2500   -999.2500   -999.2500     66.3810   -999.2500   -999.2500   -999.2500   -999.2500   -999.2500   -999.2500   -999.2500   -999.2500   -999.2500   -999.2500
   8778.5000   -999.2500   -999.2500   -999.2500     63.1183   -999.2500   -999.2500   -999.2500   -999.2500   -999.2500   -999.2500   -999.2500   -999.2500   -999.2500   -999.2500
   8779.0000   -999.2500   -999.2500   -999.2500     62.5696   -999.2500   -999.2500   -999.2500   -999.2500   -999.2500   -999.2500   -999.2500   -999.2500   -999.2500   -999.2500
   8779.5000   -999.2500   -999.2500   -999.2500     65.9545   -999.2500   -999.2500   -999.2500   -999.2500   -999.2500   -999.2500   -999.2500   -999.2500   -999.2500   -999.2500
   8780.0000   -999.2500   -999.2500   -999.2500     70.1960   -999.2500   -999.2500   -999.2500   -999.2500   -999.2500   -999.2500   -999.2500   -999.2500   -999.2500   -999.2500
   8780.5000   -999.2500   -999.2500   -999.2500     74.8435   -999.2500   -999.2500   -999.2500   -999.2500   -999.2500   -999.2500   -999.2500   -999.2500   -999.2500   -999.2500
   8781.0000   -999.2500   -999.2500   -999.2500     70.5708   -999.2500   -999.2500   -999.2500   -999.2500   -999.2500   -999.2500   -999.2500   -999.2500   -999.2500   -999.2500
   8781.5000   -999.2500   -999.2500   -999.2500     65.4021   -999.2500   -999.2500   -999.2500   -999.2500   -999.2500   -999.2500   -999.2500   -999.2500   -999.2500   -999.2500
   8782.0000   -999.2500   -999.2500   -999.2500     63.6815   -999.2500   -999.2500   -999.2500   -999.2500   -999.2500   -999.2500   -999.2500   -999.2500   -999.2500   -999.2500
   8782.5000   -999.2500   -999.2500   -999.2500     61.6563   -999.2500   -999.2500   -999.2500   -999.2500   -999.2500   -999.2500   -999.2500   -999.2500   -999.2500   -999.2500
   8783.0000   -999.2500   -999.2500   -999.2500     55.3923   -999.2500   -999.2500   -999.2500   -999.2500   -999.2500   -999.2500   -999.2500   -999.2500   -999.2500   -999.2500
   8783.5000   -999.2500   -999.2500   -999.2500     48.6056   -999.2500   -999.2500   -999.2500   -999.2500   -999.2500   -999.2500   -999.2500   -999.2500   -999.2500   -999.2500
   8784.0000   -999.2500   -999.2500   -999.2500     54.6798   -999.2500   -999.2500   -999.2500   -999.2500   -999.2500   -999.2500   -999.2500   -999.2500   -999.2500   -999.2500
   8784.5000   -999.2500   -999.2500   -999.2500     54.7883   -999.2500   -999.2500   -999.2500   -999.2500   -999.2500   -999.2500   -999.2500   -999.2500   -999.2500   -999.2500
   8785.0000   -999.2500   -999.2500   -999.2500     54.9929   -999.2500   -999.2500   -999.2500   -999.2500   -999.2500   -999.2500   -999.2500   -999.2500   -999.2500   -999.2500
   8785.5000   -999.2500   -999.2500   -999.2500     55.0679   -999.2500   -999.2500   -999.2500   -999.2500   -999.2500   -999.2500   -999.2500   -999.2500   -999.2500   -999.2500
   8786.0000   -999.2500   -999.2500   -999.2500     55.3515   -999.2500   -999.2500   -999.2500   -999.2500   -999.2500   -999.2500   -999.2500   -999.2500   -999.2500   -999.2500
   8786.5000   -999.2500   -999.2500   -999.2500     56.4436   -999.2500   -999.2500   -999.2500   -999.2500   -999.2500   -999.2500   -999.2500   -999.2500   -999.2500   -999.2500
   8787.0000   -999.2500   -999.2500   -999.2500     53.3004   -999.2500   -999.2500   -999.2500   -999.2500   -999.2500   -999.2500   -999.2500   -999.2500   -999.2500   -999.2500
   8787.5000   -999.2500   -999.2500   -999.2500     57.5950   -999.2500   -999.2500   -999.2500   -999.2500   -999.2500   -999.2500   -999.2500   -999.2500   -999.2500   -999.2500
   8788.0000   -999.2500   -999.2500   -999.2500     62.2814   -999.2500   -999.2500   -999.2500   -999.2500   -999.2500   -999.2500   -999.2500   -999.2500   -999.2500   -999.2500
   8788.5000   -999.2500   -999.2500   -999.2500     67.8733   -999.2500   -999.2500   -999.2500   -999.2500   -999.2500   -999.2500   -999.2500   -999.2500   -999.2500   -999.2500
   8789.0000   -999.2500   -999.2500   -999.2500     65.9158   -999.2500   -999.2500   -999.2500   -999.2500   -999.2500   -999.2500   -999.2500   -999.2500   -999.2500   -999.2500
   8789.5000   -999.2500   -999.2500   -999.2500     63.9315   -999.2500   -999.2500   -999.2500   -999.2500   -999.2500   -999.2500   -999.2500   -999.2500   -999.2500   -999.2500
   8790.0000   -999.2500   -999.2500   -999.2500     56.6282   -999.2500   -999.2500   -999.2500   -999.2500   -999.2500   -999.2500   -999.2500   -999.2500   -999.2500   -999.2500
   8790.5000   -999.2500   -999.2500   -999.2500     58.4885   -999.2500   -999.2500   -999.2500   -999.2500   -999.2500   -999.2500   -999.2500   -999.2500   -999.2500   -999.2500
   8791.0000   -999.2500   -999.2500   -999.2500     66.8175   -999.2500   -999.2500   -999.2500   -999.2500   -999.2500   -999.2500   -999.2500   -999.2500   -999.2500   -999.2500
   8791.5000   -999.2500   -999.2500   -999.2500     60.0954   -999.2500   -999.2500   -999.2500   -999.2500   -999.2500   -999.2500   -999.2500   -999.2500   -999.2500   -999.2500
   8792.0000   -999.2500   -999.2500   -999.2500     56.6517   -999.2500   -999.2500   -999.2500   -999.2500   -999.2500   -999.2500   -999.2500   -999.2500   -999.2500   -999.2500
   8792.5000   -999.2500   -999.2500   -999.2500     57.3405   -999.2500   -999.2500   -999.2500   -999.2500   -999.2500   -999.2500   -999.2500   -999.2500   -999.2500   -999.2500
   8793.0000   -999.2500   -999.2500   -999.2500     63.1558   -999.2500   -999.2500   -999.2500   -999.2500   -999.2500   -999.2500   -999.2500   -999.2500   -999.2500   -999.2500
   8793.5000   -999.2500   -999.2500   -999.2500     61.1025   -999.2500   -999.2500   -999.2500   -999.2500   -999.2500   -999.2500   -999.2500   -999.2500   -999.2500   -999.2500
   8794.0000   -999.2500   -999.2500   -999.2500     58.1574   -999.2500   -999.2500   -999.2500   -999.2500   -999.2500   -999.2500   -999.2500   -999.2500   -999.2500   -999.2500
   8794.5000   -999.2500   -999.2500   -999.2500     50.8304   -999.2500   -999.2500   -999.2500   -999.2500   -999.2500   -999.2500   -999.2500   -999.2500   -999.2500   -999.2500
   8795.0000   -999.2500   -999.2500   -999.2500     54.4288   -999.2500   -999.2500   -999.2500   -999.2500   -999.2500   -999.2500   -999.2500   -999.2500   -999.2500   -999.2500
   8795.5000   -999.2500   -999.2500   -999.2500     57.6984   -999.2500   -999.2500   -999.2500   -999.2500   -999.2500   -999.2500   -999.2500   -999.2500   -999.2500   -999.2500
   8796.0000   -999.2500   -999.2500   -999.2500     66.2557   -999.2500   -999.2500   -999.2500   -999.2500   -999.2500   -999.2500   -999.2500   -999.2500   -999.2500   -999.2500
   8796.5000   -999.2500   -999.2500   -999.2500     72.1729   -999.2500   -999.2500   -999.2500   -999.2500   -999.2500   -999.2500   -999.2500   -999.2500   -999.2500   -999.2500
   8797.0000   -999.2500   -999.2500   -999.2500     77.3382   -999.2500   -999.2500   -999.2500   -999.2500   -999.2500   -999.2500   -999.2500   -999.2500   -999.2500   -999.2500
   8797.5000   -999.2500   -999.2500   -999.2500     80.2038   -999.2500   -999.2500   -999.2500   -999.2500   -999.2500   -999.2500   -999.2500   -999.2500   -999.2500   -999.2500
   8798.0000   -999.2500   -999.2500   -999.2500     84.8983   -999.2500   -999.2500   -999.2500   -999.2500   -999.2500   -999.2500   -999.2500   -999.2500   -999.2500   -999.2500
   8798.5000   -999.2500   -999.2500   -999.2500     83.7723   -999.2500   -999.2500   -999.2500   -999.2500   -999.2500   -999.2500   -999.2500   -999.2500   -999.2500   -999.2500
